File: B 2.2/Messdaten/XRD/Probe4.UXD
; C:\Data\Jenni\Praktikum B2.2\Probe4_450abgeschreckt_abgeschliffen_Messung.raw(Diffrac Plus V1.01 file) converted by XCH V1.0
_FILEVERSION=2
_SAMPLE='Probe 4'
_SITE='II. Physikalisches Institut'
_ATTACHMENTS_CODE=0
_GONIOMETER_RADIUS=200.5
_FIXED_DIVSLIT=2.000000
_FIXED_SAMPLESLIT=1.000000
_FIXED_DETSLIT=0.200000
_MONOCHROMATOR=0
; None
_THIN_FILM='N'
_BETA_FILTER='Y'
_FIXED_ANTISLIT=2.000000
_ANALYZER_CODE=0
; None
_DATEMEASURED='23-Nov-2018 12:39:02'
_WL_UNIT='A'
_WL1=1.540590
_WL2=1.544430
_WL3=1.392230
_WLRATIO=0.520000
_ANODE='Cu'
; (Data for Range number 1)
_DRIVE='COUPLED'
_STEPTIME=5.000000
_STEPSIZE=0.020000
_STEPMODE='C'
_START=20
_THETA=10
_2THETA=20
_KHI=0.000000
_PHI=0.000000
_X=0.000000
_Y=0.000000
_Z=0.000000
_DIVERGENCE=0.000000
_ANTISCATTER=0.000000
_DETECTOR=1
; S.C.
_HV=1000
_GAIN=80
_LLD=0.550000
_ULD=1.310000
_DETECTORSLIT='unkn'
_AUX1=0.000000
_AUX2=0.000000
_AUX3=0.000000
_TIMESTARTED=14
_ROTATION_SPEED=120
_TEMP_RATE=-1.000000
_TEMP_DELAY=-1.000000
_KV=40
_MA=40
_RANGE_WL=1.540590
_3DPLANE=0
_2THETACOUNTS
  20.0000       444
  20.3000       427
  20.6000       409
  20.9000       451
  21.2000       461
  21.5000       484
  21.8000       438
  22.1000       459
  22.4000       452
  22.7000       450
  23.0000       432
  23.3000       444
  23.6000       405
  23.9000       415
  24.2000       460
  24.5000       421
  24.8000       406
  25.1000       455
  25.4000       407
  25.7000       458
  26.0000       390
  26.3000       423
  26.6000       441
  26.9000       423
  27.2000       449
  27.5000       458
  27.8000       423
  28.1000       380
  28.4000       458
  28.7000       409
  29.0000       425
  29.3000       419
  29.6000       461
  29.9000       410
  30.2000       423
  30.5000       427
  30.8000       477
  31.1000       407
  31.4000       447
  31.7000       437
  32.0000       468
  32.3000       439
  32.6000       439
  32.9000       418
  33.2000       430
  33.5000       440
  33.8000       438
  34.1000       438
  34.4000       419
  34.7000       392
  35.0000       413
  35.3000       444
  35.6000       376
  35.9000       401
  36.2000       453
  36.5000       506
  36.8000       459
  37.1000       425
  37.4000       402
  37.7000       417
  38.0000       440
  38.3000       412
  38.6000       425
  38.9000       479
  39.2000       534
  39.5000       563
  39.8000       673
  40.1000      1789
  40.4000      4725
  40.7000      2091
  41.0000       687
  41.3000       589
  41.6000       499
  41.9000       481
  42.2000       520
  42.5000       483
  42.8000       473
  43.1000       456
  43.4000       444
  43.7000       464
  44.0000       448
  44.3000       476
  44.6000       434
  44.9000       487
  45.2000       446
  45.5000       445
  45.8000       499
  46.1000       598
  46.4000       795
  46.7000      1252
  47.0000      2175
  47.3000      1449
  47.6000       627
  47.9000       483
  48.2000       460
  48.5000       445
  48.8000       413
  49.1000       447
  49.4000       448
  49.7000       434
  50.0000       436
  50.3000       399
  50.6000       465
  50.9000       453
  51.2000       446
  51.5000       447
  51.8000       433
  52.1000       437
  52.4000       458
  52.7000       425
  53.0000       456
  53.3000       404
  53.6000       447
  53.9000       431
  54.2000       466
  54.5000       445
  54.8000       472
  55.1000       456
  55.4000       461
  55.7000       468
  56.0000       467
  56.3000       471
  56.6000       409
  56.9000       447
  57.2000       402
  57.5000       441
  57.8000       439
  58.1000       466
  58.4000       447
  58.7000       496
  59.0000       458
  59.3000       449
  59.6000       473
  59.9000       440
  60.2000       460
  60.5000       462
  60.8000       449
  61.1000       500
  61.4000       520
  61.7000       454
  62.0000       468
  62.3000       474
  62.6000       445
  62.9000       459
  63.2000       464
  63.5000       468
  63.8000       466
  64.1000       461
  64.4000       448
  64.7000       466
  65.0000       453
  65.3000       464
  65.6000       465
  65.9000       471
  66.2000       458
  66.5000       473
  66.8000       545
  67.1000       451
  67.4000       538
  67.7000       550
  68.0000       544
  68.3000       738
  68.6000      1155
  68.9000      1339
  69.2000       818
  69.5000       578
  69.8000       520
  70.1000       500
  70.4000       485
  70.7000       467
  71.0000       501
  71.3000       438
  71.6000       456
  71.9000       493
  72.2000       519
  72.5000       452
  72.8000       479
  73.1000       494
  73.4000       482
  73.7000       447
  74.0000       469
  74.3000       479
  74.6000       497
  74.9000       501
  75.2000       458
  75.5000       455
  75.8000       468
  76.1000       479
  76.4000       479
  76.7000       447
  77.0000       482
  77.3000       441
  77.6000       495
  77.9000       517
  78.2000       482
  78.5000       528
  78.8000       490
  79.1000       461
  79.4000       508
  79.7000       514
  80.0000       461
  80.3000       498
  80.6000       471
  80.9000       496
  81.2000       496
  81.5000       518
  81.8000       525
  82.1000       661
  82.4000       793
  82.7000      1122
  83.0000      1283
  83.3000      1005
  83.6000       684
  83.9000       552
  84.2000       508
  84.5000       480
  84.8000       431
  85.1000       479
  85.4000       484
  85.7000       452
  86.0000       489
  86.3000       507
  86.6000       513
  86.9000       545
  87.2000       612
  87.5000       754
  87.8000       687
  88.1000       557
  88.4000       498
  88.7000       450
  89.0000       500
  89.3000       474
  89.6000       464
  89.9000       444
  90.2000       464
  90.5000       453
  90.8000       460
  91.1000       473
  91.4000       442
  91.7000       489
  92.0000       478
  92.3000       488
  92.6000       456
  92.9000       500
  93.2000       479
  93.5000       490
  93.8000       469
  94.1000       530
  94.4000       462
  94.7000       498
  95.0000       469
  95.3000       464
  95.6000       454
  95.9000       475
  96.2000       425
  96.5000       457
  96.8000       487
  97.1000       510
  97.4000       468
  97.7000       479
  98.0000       490
  98.3000       474
  98.6000       494
  98.9000       460
  99.2000       465
  99.5000       491
  99.8000       495
 100.1000       460
 100.4000       477
 100.7000       454
 101.0000       503
 101.3000       466
 101.6000       480
 101.9000       497
 102.2000       471
 102.5000       483
 102.8000       487
 103.1000       463
 103.4000       474
 103.7000       528
 104.0000       485
 104.3000       505
 104.6000       518
 104.9000       496
 105.0000       489