File: B 2.2/Messdaten/XRD/Probe2.UXD
; C:\Data\Jenni\Praktikum B2.2\11-12-18-Jï¿½rg\Probe2.raw(Diffrac Plus V1.01 file) converted by XCH V1.0
_FILEVERSION=2
_SAMPLE='Probe2'
_SITE='II. Physikalisches Institut'
_ATTACHMENTS_CODE=0
_GONIOMETER_RADIUS=200.5
_FIXED_DIVSLIT=2.000000
_FIXED_SAMPLESLIT=1.000000
_FIXED_DETSLIT=0.200000
_MONOCHROMATOR=0
; None
_THIN_FILM='N'
_BETA_FILTER='Y'
_FIXED_ANTISLIT=2.000000
_ANALYZER_CODE=0
; None
_DATEMEASURED='13-Dec-2018 08:08:21'
_WL_UNIT='A'
_WL1=1.540590
_WL2=1.544430
_WL3=1.392230
_WLRATIO=0.520000
_ANODE='Cu'
; (Data for Range number 1)
_DRIVE='COUPLED'
_STEPTIME=5.000000
_STEPSIZE=0.020000
_STEPMODE='C'
_START=20
_THETA=10
_2THETA=20
_KHI=0.000000
_PHI=0.000000
_X=0.000000
_Y=0.000000
_Z=0.000000
_DIVERGENCE=0.000000
_ANTISCATTER=0.000000
_DETECTOR=1
; S.C.
_HV=1000
_GAIN=80
_LLD=0.550000
_ULD=1.310000
_DETECTORSLIT='unkn'
_AUX1=0.000000
_AUX2=0.000000
_AUX3=0.000000
_TIMESTARTED=18
_ROTATION_SPEED=120
_TEMP_RATE=-1.000000
_TEMP_DELAY=-1.000000
_KV=40
_MA=40
_RANGE_WL=1.540590
_3DPLANE=0
_2THETACOUNTS
  20.0000       533
  20.3000       591
  20.6000       523
  20.9000       574
  21.2000       604
  21.5000       599
  21.8000       621
  22.1000       613
  22.4000       677
  22.7000       655
  23.0000       621
  23.3000       706
  23.6000       665
  23.9000       715
  24.2000       718
  24.5000       678
  24.8000       696
  25.1000       702
  25.4000       701
  25.7000       700
  26.0000       622
  26.3000       619
  26.6000       665
  26.9000       656
  27.2000       692
  27.5000       700
  27.8000       661
  28.1000       623
  28.4000       641
  28.7000       630
  29.0000       646
  29.3000       619
  29.6000       688
  29.9000       592
  30.2000       655
  30.5000       611
  30.8000       637
  31.1000       586
  31.4000       587
  31.7000       621
  32.0000       616
  32.3000       647
  32.6000       617
  32.9000       611
  33.2000       586
  33.5000       642
  33.8000       577
  34.1000       644
  34.4000       604
  34.7000       636
  35.0000       599
  35.3000       601
  35.6000       605
  35.9000       580
  36.2000       609
  36.5000       614
  36.8000       591
  37.1000       639
  37.4000       602
  37.7000       646
  38.0000       594
  38.3000       687
  38.6000       639
  38.9000       630
  39.2000       567
  39.5000       614
  39.8000       611
  40.1000       649
  40.4000       640
  40.7000       685
  41.0000       739
  41.3000       785
  41.6000      1873
  41.9000      4306
  42.2000      2009
  42.5000       869
  42.8000       710
  43.1000       659
  43.4000       655
  43.7000       662
  44.0000       709
  44.3000       662
  44.6000       661
  44.9000       643
  45.2000       678
  45.5000       650
  45.8000       639
  46.1000       627
  46.4000       671
  46.7000       670
  47.0000       674
  47.3000       670
  47.6000       758
  47.9000       893
  48.2000      1250
  48.5000      2411
  48.8000      2884
  49.1000      1431
  49.4000       846
  49.7000       737
  50.0000       673
  50.3000       667
  50.6000       724
  50.9000       671
  51.2000       685
  51.5000       659
  51.8000       643
  52.1000       652
  52.4000       639
  52.7000       668
  53.0000       678
  53.3000       643
  53.6000       674
  53.9000       729
  54.2000       687
  54.5000       680
  54.8000       726
  55.1000       700
  55.4000       744
  55.7000       724
  56.0000       658
  56.3000       694
  56.6000       644
  56.9000       679
  57.2000       646
  57.5000       690
  57.8000       714
  58.1000       677
  58.4000       722
  58.7000       650
  59.0000       687
  59.3000       649
  59.6000       675
  59.9000       723
  60.2000       683
  60.5000       700
  60.8000       699
  61.1000       683
  61.4000       691
  61.7000       711
  62.0000       687
  62.3000       702
  62.6000       649
  62.9000       759
  63.2000       727
  63.5000       668
  63.8000       701
  64.1000       700
  64.4000       666
  64.7000       711
  65.0000       712
  65.3000       717
  65.6000       675
  65.9000       710
  66.2000       700
  66.5000       700
  66.8000       691
  67.1000       662
  67.4000       714
  67.7000       634
  68.0000       681
  68.3000       742
  68.6000       767
  68.9000       711
  69.2000       673
  69.5000       710
  69.8000       698
  70.1000       698
  70.4000       792
  70.7000       848
  71.0000      1134
  71.3000      1385
  71.6000      1130
  71.9000       909
  72.2000       757
  72.5000       756
  72.8000       749
  73.1000       719
  73.4000       701
  73.7000       732
  74.0000       735
  74.3000       716
  74.6000       694
  74.9000       749
  75.2000       781
  75.5000       762
  75.8000       762
  76.1000       775
  76.4000       757
  76.7000       688
  77.0000       703
  77.3000       709
  77.6000       765
  77.9000       741
  78.2000       734
  78.5000       768
  78.8000       693
  79.1000       697
  79.4000       691
  79.7000       752
  80.0000       758
  80.3000       761
  80.6000       757
  80.9000       751
  81.2000       762
  81.5000       735
  81.8000       708
  82.1000       816
  82.4000       739
  82.7000       791
  83.0000       752
  83.3000       794
  83.6000       785
  83.9000       754
  84.2000       729
  84.5000       753
  84.8000       794
  85.1000       873
  85.4000      1020
  85.7000      1238
  86.0000      1470
  86.3000      1491
  86.6000      1105
  86.9000       892
  87.2000       788
  87.5000       788
  87.8000       748
  88.1000       790
  88.4000       712
  88.7000       737
  89.0000       748
  89.3000       734
  89.6000       762
  89.9000       725
  90.2000       724
  90.5000       876
  90.8000       940
  91.1000       947
  91.4000       876
  91.7000       769
  92.0000       738
  92.3000       729
  92.6000       746
  92.9000       745
  93.2000       780
  93.5000       743
  93.8000       709
  94.1000       788
  94.4000       724
  94.7000       753
  95.0000       732
  95.3000       762
  95.6000       787
  95.9000       778
  96.2000       788
  96.5000       726
  96.8000       765
  97.1000       756
  97.4000       757
  97.7000       750
  98.0000       724
  98.3000       747
  98.6000       740
  98.9000       752
  99.2000       747
  99.5000       728
  99.8000       731
 100.1000       720
 100.4000       740
 100.7000       776
 101.0000       811
 101.3000       798
 101.6000       746
 101.9000       785
 102.2000       777
 102.5000       770
 102.8000       805
 103.1000       722
 103.4000       765
 103.7000       743
 104.0000       823
 104.3000       808
 104.6000       772
 104.9000       749
 105.0000       749