File: B 2.2/Messdaten/XRD/Probe3.UXD
; C:\Data\Jenni\Praktikum B2.2\11-12-18-Jörg\Probe3.raw(Diffrac Plus V1.01 file) converted by XCH V1.0
_FILEVERSION=2
_SAMPLE='Probe3'
_SITE='II. Physikalisches Institut'
_ATTACHMENTS_CODE=0
_GONIOMETER_RADIUS=200.5
_FIXED_DIVSLIT=2.000000
_FIXED_SAMPLESLIT=1.000000
_FIXED_DETSLIT=0.200000
_MONOCHROMATOR=0
; None
_THIN_FILM='N'
_BETA_FILTER='Y'
_FIXED_ANTISLIT=2.000000
_ANALYZER_CODE=0
; None
_DATEMEASURED='13-Dec-2018 14:04:22'
_WL_UNIT='A'
_WL1=1.540590
_WL2=1.544430
_WL3=1.392230
_WLRATIO=0.520000
_ANODE='Cu'
; (Data for Range number 1)
_DRIVE='COUPLED'
_STEPTIME=5.000000
_STEPSIZE=0.020000
_STEPMODE='C'
_START=20
_THETA=10
_2THETA=20
_KHI=0.000000
_PHI=0.000000
_X=0.000000
_Y=0.000000
_Z=0.000000
_DIVERGENCE=0.000000
_ANTISCATTER=0.000000
_DETECTOR=1
; S.C.
_HV=1000
_GAIN=80
_LLD=0.550000
_ULD=1.310000
_DETECTORSLIT='unkn'
_AUX1=0.000000
_AUX2=0.000000
_AUX3=0.000000
_TIMESTARTED=12
_ROTATION_SPEED=120
_TEMP_RATE=-1.000000
_TEMP_DELAY=-1.000000
_KV=40
_MA=40
_RANGE_WL=1.540590
_3DPLANE=0
_2THETACOUNTS
  20.0000       402
  20.3000       370
  20.6000       402
  20.9000       422
  21.2000       399
  21.5000       427
  21.8000       421
  22.1000       441
  22.4000       463
  22.7000       448
  23.0000       495
  23.3000       491
  23.6000       478
  23.9000       515
  24.2000       515
  24.5000       468
  24.8000       482
  25.1000       466
  25.4000       465
  25.7000       477
  26.0000       463
  26.3000       514
  26.6000       478
  26.9000       462
  27.2000       435
  27.5000       496
  27.8000       505
  28.1000       501
  28.4000       479
  28.7000       495
  29.0000       479
  29.3000       455
  29.6000       524
  29.9000       504
  30.2000       505
  30.5000       517
  30.8000       470
  31.1000       497
  31.4000       505
  31.7000       537
  32.0000       564
  32.3000       558
  32.6000       520
  32.9000       528
  33.2000       525
  33.5000       570
  33.8000       600
  34.1000       553
  34.4000       515
  34.7000       507
  35.0000       526
  35.3000       537
  35.6000       495
  35.9000       496
  36.2000       549
  36.5000       517
  36.8000       520
  37.1000       543
  37.4000       536
  37.7000       569
  38.0000       592
  38.3000       513
  38.6000       558
  38.9000       546
  39.2000       609
  39.5000       638
  39.8000       783
  40.1000      1116
  40.4000      1604
  40.7000      1978
  41.0000      2424
  41.3000      2281
  41.6000      1534
  41.9000       926
  42.2000       609
  42.5000       603
  42.8000       561
  43.1000       576
  43.4000       529
  43.7000       589
  44.0000       612
  44.3000       580
  44.6000       561
  44.9000       561
  45.2000       591
  45.5000       642
  45.8000       727
  46.1000       734
  46.4000       719
  46.7000       810
  47.0000       886
  47.3000      1048
  47.6000      1280
  47.9000      1450
  48.2000      1301
  48.5000      1376
  48.8000       785
  49.1000       635
  49.4000       539
  49.7000       614
  50.0000       537
  50.3000       545
  50.6000       588
  50.9000       586
  51.2000       569
  51.5000       572
  51.8000       553
  52.1000       601
  52.4000       570
  52.7000       544
  53.0000       538
  53.3000       506
  53.6000       556
  53.9000       562
  54.2000       576
  54.5000       671
  54.8000       653
  55.1000       601
  55.4000       544
  55.7000       541
  56.0000       589
  56.3000       559
  56.6000       538
  56.9000       501
  57.2000       546
  57.5000       529
  57.8000       543
  58.1000       521
  58.4000       565
  58.7000       563
  59.0000       559
  59.3000       561
  59.6000       618
  59.9000       550
  60.2000       640
  60.5000       585
  60.8000       567
  61.1000       560
  61.4000       586
  61.7000       596
  62.0000       604
  62.3000       580
  62.6000       565
  62.9000       606
  63.2000       582
  63.5000       569
  63.8000       517
  64.1000       524
  64.4000       595
  64.7000       564
  65.0000       589
  65.3000       553
  65.6000       547
  65.9000       589
  66.2000       576
  66.5000       580
  66.8000       588
  67.1000       631
  67.4000       588
  67.7000       595
  68.0000       639
  68.3000       638
  68.6000       663
  68.9000       681
  69.2000       654
  69.5000       759
  69.8000       849
  70.1000       872
  70.4000       846
  70.7000       825
  71.0000       927
  71.3000       842
  71.6000       681
  71.9000       684
  72.2000       587
  72.5000       589
  72.8000       582
  73.1000       579
  73.4000       601
  73.7000       547
  74.0000       535
  74.3000       608
  74.6000       553
  74.9000       610
  75.2000       610
  75.5000       610
  75.8000       669
  76.1000       620
  76.4000       638
  76.7000       655
  77.0000       566
  77.3000       593
  77.6000       584
  77.9000       653
  78.2000       592
  78.5000       591
  78.8000       594
  79.1000       590
  79.4000       581
  79.7000       613
  80.0000       633
  80.3000       605
  80.6000       688
  80.9000       621
  81.2000       640
  81.5000       637
  81.8000       625
  82.1000       665
  82.4000       641
  82.7000       655
  83.0000       714
  83.3000       645
  83.6000       637
  83.9000       777
  84.2000       814
  84.5000       858
  84.8000       923
  85.1000       893
  85.4000       852
  85.7000       935
  86.0000       989
  86.3000       804
  86.6000       695
  86.9000       696
  87.2000       612
  87.5000       653
  87.8000       645
  88.1000       630
  88.4000       651
  88.7000       658
  89.0000       674
  89.3000       677
  89.6000       733
  89.9000       669
  90.2000       723
  90.5000       615
  90.8000       699
  91.1000       669
  91.4000       620
  91.7000       587
  92.0000       585
  92.3000       618
  92.6000       575
  92.9000       592
  93.2000       658
  93.5000       611
  93.8000       624
  94.1000       585
  94.4000       584
  94.7000       585
  95.0000       626
  95.3000       684
  95.6000       644
  95.9000       608
  96.2000       613
  96.5000       608
  96.8000       623
  97.1000       640
  97.4000       657
  97.7000       555
  98.0000       643
  98.3000       633
  98.6000       628
  98.9000       622
  99.2000       627
  99.5000       612
  99.8000       664
 100.1000       664
 100.4000       687
 100.7000       639
 101.0000       627
 101.3000       679
 101.6000       617
 101.9000       616
 102.2000       629
 102.5000       690
 102.8000       634
 103.1000       645
 103.4000       632
 103.7000       592
 104.0000       587
 104.3000       623
 104.6000       646
 104.9000       683
 105.0000       615